Date and Time:                Wed Jul 31 19:25:07.000 2024
Software Version:             4.32.30065.0
Temperature (C):              -80
Model:                        DU970P_BVF
Data Type:                    Counts
Acquisition Mode:             Accumulate
Trigger Mode:                 Internal
Exposure Time (secs):         10
Accumulate Cycle Time (secs): 10
Frequency (Hz):               0.1
Number of Accumulations:      30
Readout Mode:                 Full Vertical Binning
Horizontal binning:           1
Shutter Mode:                 Permanently OPEN
TTL level:                    High
Time to open:                 27 ms
Time to close:                27 ms
Extended Data Range:          off
Horizontally flipped:         false
Vertical Shift Speed (usecs): 4.88
Pixel Readout Rate (MHz):     0.05
Baseline Clamp:               ON
Clock Amplitude:              Normal
Output Amplifier:             Conventional
Serial Number:                28257
Pre-Amplifier Gain:           4.000000
Spurious Noise Filter Mode:   No Filter
Photon counted:               false
Data Averaging Filter Mode:   No Filter
KY328i:
Serial Number:                
Wavelength (nm):              842
Grating Groove Density (l/mm):1200
Grating Blaze:                500NM
Input Flipper Port:           Side
Output Flipper Port:          Direct



817.89807	11417
817.92865	11460
817.95923	11529
817.98981	11486
818.02039	11409
818.05096	11323
818.08154	11378
818.11212	11547
818.1427	11426
818.17328	11497
818.20386	11472
818.23444	11513
818.26501	11550
818.29559	11417
818.32617	11371
818.35675	11466
818.38733	11473
818.41785	11431
818.44843	11250
818.479	11458
818.50958	11418
818.54016	11481
818.57068	11449
818.60126	11416
818.63184	11459
818.66241	11521
818.69293	11396
818.72351	11481
818.75409	11485
818.78461	11499
818.81519	11419
818.84576	11352
818.87628	11488
818.90686	11415
818.93738	11435
818.96796	11477
818.99847	11585
819.02905	11463
819.05957	11532
819.09015	11438
819.12067	11509
819.15125	11555
819.18176	11542
819.21234	11453
819.24286	11483
819.27338	11450
819.30396	11606
819.33447	11377
819.36499	11454
819.39557	11496
819.42609	11486
819.4566	11480
819.48718	11458
819.5177	11423
819.54822	11552
819.57874	11470
819.60925	11490
819.63983	11460
819.67035	11376
819.70087	11621
819.73138	11540
819.7619	11566
819.79242	11476
819.82294	11623
819.85345	11475
819.88397	11617
819.91455	11632
819.94507	11431
819.97559	11667
820.0061	11490
820.03662	11563
820.06708	11544
820.0976	11632
820.12811	11520
820.15863	11649
820.18915	11544
820.21967	11510
820.25018	11654
820.2807	11449
820.31122	11523
820.34167	11641
820.37219	11624
820.40271	11610
820.43323	11531
820.46368	11668
820.4942	11623
820.52472	11551
820.55518	11588
820.58569	11664
820.61621	11618
820.64667	11599
820.67719	11577
820.7077	11718
820.73816	11555
820.76868	11561
820.79913	11476
820.82965	11714
820.86011	11631
820.89063	11549
820.92108	11509
820.9516	11472
820.98206	11775
821.01257	11778
821.04303	11645
821.07355	11625
821.104	11615
821.13446	11607
821.16498	11611
821.19543	11613
821.22589	11594
821.25641	11727
821.28687	11526
821.31732	11683
821.34784	11798
821.3783	11654
821.40875	11687
821.43921	11757
821.46967	11694
821.50018	11531
821.53064	11718
821.5611	11741
821.59155	11714
821.62201	11868
821.65247	11647
821.68292	11525
821.71338	11628
821.74384	11557
821.77429	11728
821.80475	11675
821.83521	11679
821.86566	11668
821.89612	11740
821.92657	11692
821.95703	11735
821.98749	11737
822.01794	11697
822.0484	11728
822.07886	11746
822.10931	11630
822.13971	11791
822.17017	11779
822.20062	11613
822.23108	11828
822.26154	11823
822.29193	11623
822.32239	11674
822.35284	11700
822.38324	11810
822.4137	11721
822.44415	11782
822.47455	11705
822.505	11742
822.53546	11633
822.56586	11853
822.59631	11800
822.62671	11809
822.65717	11587
822.68756	11898
822.71802	11786
822.74841	11662
822.77887	11841
822.80927	11718
822.83972	11761
822.87012	11779
822.90057	11850
822.93097	11728
822.96136	11847
822.99182	11791
823.02222	11799
823.05261	11645
823.08307	11785
823.11346	11831
823.14386	11764
823.17432	11897
823.20471	11806
823.23511	11835
823.2655	11852
823.2959	11942
823.32635	11917
823.35675	11788
823.38715	11944
823.41754	11936
823.44794	11833
823.47833	11751
823.50873	11931
823.53912	11858
823.56952	11919
823.59991	11832
823.63031	11956
823.66071	11855
823.6911	11901
823.7215	11869
823.75189	11991
823.78229	12007
823.81268	11821
823.84308	11935
823.87347	11963
823.90387	11986
823.9342	11976
823.9646	11958
823.995	11879
824.02539	12002
824.05579	12101
824.08612	11975
824.11652	12081
824.14691	11927
824.17725	12102
824.20764	12072
824.23804	12043
824.26837	12066
824.29877	12029
824.32916	12167
824.3595	12222
824.38989	11997
824.42023	12130
824.45062	12243
824.48102	12189
824.51135	12058
824.54175	12280
824.57208	12178
824.60242	12156
824.63281	12293
824.66315	12085
824.69354	12069
824.72388	12243
824.75421	12354
824.78461	12113
824.81494	12224
824.84528	12210
824.87567	12173
824.90601	12299
824.93634	12361
824.96674	12323
824.99707	12331
825.0274	12263
825.05774	12186
825.08807	12341
825.11847	12409
825.1488	12280
825.17914	12283
825.20947	12240
825.23981	12417
825.27014	12409
825.30048	12347
825.33081	12404
825.36115	12360
825.39148	12173
825.42181	12398
825.45215	12427
825.48248	12427
825.51282	12400
825.54315	12502
825.57349	12489
825.60382	12434
825.63416	12325
825.66449	12536
825.69482	12401
825.7251	12446
825.75543	12472
825.78577	12410
825.8161	12197
825.84637	12423
825.87671	12474
825.90704	12342
825.93738	12552
825.96765	12487
825.99799	12527
826.02832	12586
826.05859	12473
826.08893	12573
826.11926	12514
826.14954	12472
826.17987	12445
826.21014	12444
826.24048	12359
826.27075	12460
826.30109	12396
826.33136	12362
826.36169	12444
826.39197	12380
826.4223	12316
826.45258	12528
826.48285	12440
826.51318	12334
826.54346	12481
826.57373	12538
826.60406	12475
826.63434	12557
826.66461	12447
826.69495	12439
826.72522	12576
826.75549	12525
826.78577	12440
826.8161	12553
826.84637	12535
826.87665	12299
826.90692	12469
826.93719	12445
826.96747	12646
826.99774	12530
827.02808	12519
827.05835	12487
827.08862	12449
827.1189	12507
827.14917	12518
827.17944	12537
827.20972	12570
827.23999	12503
827.27026	12567
827.30048	12381
827.33075	12585
827.36102	12429
827.3913	12480
827.42157	12471
827.45184	12625
827.48212	12457
827.51233	12537
827.5426	12523
827.57288	12569
827.60315	12361
827.63342	12515
827.66364	12326
827.69391	12516
827.72418	12491
827.75439	12552
827.78467	12669
827.81494	12532
827.84515	12688
827.87543	12516
827.90564	12590
827.93591	12551
827.96613	12645
827.9964	12656
828.02661	12483
828.05688	12416
828.0871	12387
828.11737	12631
828.14758	12605
828.17786	12571
828.20807	12533
828.23834	12597
828.26855	12436
828.29877	12651
828.32904	12638
828.35925	12480
828.38947	12573
828.41968	12566
828.44995	12599
828.48016	12688
828.51038	12656
828.54059	12466
828.57086	12510
828.60107	12664
828.63129	12737
828.6615	12599
828.69171	12554
828.72192	12765
828.75214	12627
828.78235	12517
828.81262	12524
828.84283	12556
828.87305	12632
828.90326	12655
828.93347	12620
828.96362	12580
828.99384	12660
829.02405	12553
829.05426	12605
829.08447	12643
829.11469	12689
829.1449	12604
829.17511	12556
829.20532	12608
829.23547	12591
829.26569	12447
829.2959	12478
829.32611	12547
829.35626	12546
829.38647	12630
829.41669	12555
829.4469	12554
829.47705	12529
829.50726	12439
829.53741	12506
829.56763	12578
829.59784	12509
829.62799	12610
829.6582	12627
829.68835	12310
829.71857	12652
829.74872	12529
829.77893	12657
829.80908	12637
829.83929	12547
829.86945	12592
829.89966	12589
829.92981	12509
829.95996	12485
829.99017	12596
830.02032	12439
830.05048	12503
830.08069	12612
830.11084	12541
830.14099	12496
830.1712	12620
830.20135	12458
830.23151	12568
830.26166	12635
830.29181	12427
830.32202	12569
830.35217	12601
830.38232	12621
830.41248	12686
830.44263	12405
830.47278	12605
830.50293	12493
830.53308	12652
830.56323	12559
830.59338	12682
830.62354	12429
830.65369	12544
830.68384	12755
830.71399	12629
830.74414	12522
830.77429	12690
830.80444	12605
830.83459	12550
830.86475	12616
830.89484	12699
830.92499	12568
830.95514	12541
830.98529	12618
831.01544	12617
831.04553	12563
831.07568	12649
831.10583	12664
831.13593	12775
831.16608	12738
831.19623	12596
831.22632	12495
831.25647	12731
831.28662	12478
831.31671	12629
831.34686	12445
831.37695	12588
831.4071	12632
831.43719	12564
831.46735	12584
831.49744	12646
831.52759	12531
831.55768	12572
831.58783	12626
831.61792	12518
831.64801	12639
831.67816	12563
831.70825	12534
831.73834	12566
831.76849	12498
831.79858	12514
831.82867	12606
831.85876	12633
831.88892	12647
831.91901	12661
831.9491	12642
831.97919	12501
832.00934	12531
832.03943	12644
832.06952	12551
832.09961	12786
832.1297	12684
832.15979	12595
832.18988	12539
832.21997	12687
832.25006	12686
832.28015	12402
832.31024	12616
832.34033	12631
832.37042	12643
832.40051	12749
832.4306	12488
832.46069	12645
832.49078	12765
832.52087	12640
832.5509	12619
832.58099	12420
832.61108	12617
832.64117	12633
832.67126	12576
832.70129	12579
832.73138	12621
832.76147	12684
832.79156	12526
832.82159	12657
832.85168	12562
832.88171	12774
832.9118	12700
832.94189	12624
832.97192	12730
833.00201	12577
833.03204	12592
833.06213	12675
833.09216	12683
833.12225	12581
833.15228	12695
833.18237	12777
833.2124	12769
833.24249	12570
833.27252	12692
833.30261	12635
833.33264	12684
833.36267	12494
833.39276	12613
833.42279	12652
833.45282	12666
833.48291	12579
833.51294	12866
833.54297	12662
833.573	12607
833.60303	12674
833.63312	12523
833.66315	12570
833.69318	12789
833.72321	12636
833.75323	12573
833.78326	12749
833.81329	12650
833.84332	12806
833.87341	12800
833.90344	12594
833.93347	12608
833.9635	12688
833.99353	12656
834.0235	12685
834.05353	12724
834.08356	12675
834.11359	12720
834.14362	12642
834.17365	12641
834.20367	12565
834.2337	12709
834.26367	12653
834.2937	12612
834.32373	12768
834.35376	12751
834.38373	12668
834.41376	12777
834.44379	12668
834.47382	12761
834.50378	12517
834.53381	12653
834.56378	12812
834.59381	12838
834.62384	12737
834.65381	12601
834.68384	12635
834.71381	12782
834.74384	12702
834.7738	12578
834.80383	12518
834.8338	12679
834.86383	12757
834.8938	12630
834.92383	12763
834.9538	12621
834.98376	12668
835.01379	12551
835.04376	12809
835.07373	12672
835.10376	12789
835.13373	12714
835.1637	12736
835.19366	12672
835.22369	12750
835.25366	12624
835.28363	12708
835.3136	12871
835.34357	12698
835.37354	12722
835.4035	12786
835.43353	12872
835.4635	12719
835.49347	12746
835.52344	12763
835.55341	12741
835.58337	12696
835.61334	12696
835.64331	12817
835.67328	12806
835.70325	12822
835.73315	12721
835.76312	12667
835.79309	12862
835.82306	12841
835.85303	12876
835.883	12744
835.91296	12731
835.94287	12833
835.97284	12769
836.00281	12875
836.03278	12694
836.06268	12867
836.09265	12863
836.12262	12950
836.15253	12857
836.1825	12815
836.2124	12791
836.24237	13080
836.27234	12960
836.30225	13129
836.33221	12949
836.36212	13039
836.39209	12871
836.422	12914
836.45197	12927
836.48187	12947
836.51184	13056
836.54175	12953
836.57166	13063
836.60162	12891
836.63153	12821
836.66144	13148
836.69141	13013
836.72131	13106
836.75122	12848
836.78119	12962
836.8111	12977
836.841	12922
836.87091	12976
836.90082	12990
836.93079	13051
836.96069	12869
836.9906	12782
837.02051	12945
837.05042	13136
837.08032	13045
837.11023	13108
837.14014	13021
837.17004	12924
837.19995	13095
837.22986	13020
837.25977	12945
837.28967	13109
837.31958	12877
837.34949	13052
837.37939	13070
837.4093	12851
837.43915	13116
837.46906	13014
837.49896	13088
837.52887	13001
837.55878	12965
837.58862	13039
837.61853	13028
837.64844	13117
837.67834	13151
837.70819	13082
837.7381	13018
837.76801	13004
837.79785	13197
837.82776	13082
837.8576	13086
837.88751	13149
837.91736	13094
837.94727	12992
837.97717	13051
838.00702	12932
838.03687	13092
838.06677	13075
838.09662	12943
838.12653	13153
838.15637	13074
838.18628	13115
838.21613	12904
838.24597	13096
838.27588	13158
838.30573	13085
838.33557	13123
838.36542	13112
838.39532	13128
838.42517	13049
838.45502	13073
838.48486	13101
838.51471	13027
838.54462	13191
838.57446	13193
838.60431	13149
838.63416	13046
838.664	13078
838.69385	13178
838.72369	13090
838.75354	13120
838.78339	13020
838.81323	13208
838.84308	13295
838.87292	13096
838.90277	13145
838.93262	13165
838.96246	13095
838.99231	13256
839.02216	13117
839.05194	13266
839.08179	13114
839.11163	13253
839.14148	13148
839.17126	13183
839.20111	13130
839.23096	13169
839.2608	13253
839.29059	13092
839.32043	13312
839.35028	13154
839.38007	13093
839.40991	13163
839.4397	13179
839.46954	13000
839.49939	13138
839.52917	13169
839.55902	13215
839.58881	13064
839.61865	13270
839.64844	13278
839.67822	13121
839.70807	13142
839.73785	13128
839.7677	13233
839.79749	13221
839.82727	13324
839.85712	13388
839.8869	13038
839.91669	13245
839.94647	13290
839.97632	13282
840.0061	13299
840.03589	13342
840.06567	13351
840.09552	13121
840.12531	13203
840.15509	13431
840.18488	13193
840.21466	13166
840.24445	13245
840.27423	13276
840.30402	13361
840.3338	13340
840.36359	13290
840.39337	13238
840.42316	13414
840.45294	13274
840.48273	13244
840.51251	13325
840.5423	13345
840.57208	13368
840.60181	13273
840.63159	13357
840.66138	13405
840.69116	13262
840.72095	13279
840.75067	13175
840.78046	13400
840.81024	13351
840.84003	13394
840.86975	13398
840.89954	13388
840.92926	13371
840.95905	13238
840.98883	13235
841.01855	13356
841.04834	13393
841.07806	13318
841.10785	13420
841.13757	13375
841.16736	13192
841.19708	13267
841.22687	13422
841.25659	13414
841.28638	13481
841.3161	13342
841.34583	13231
841.37561	13324
841.40533	13407
841.43506	13381
841.46484	13611
841.49457	13469
841.52429	13530
841.55402	13439
841.5838	13539
841.61353	13390
841.64325	13509
841.67297	13344
841.7027	13350
841.73242	13322
841.76215	13494
841.79193	13538
841.82166	13481
841.85138	13349
841.8811	13251
841.91083	13590
841.94055	13410
841.97028	13416
842	13424
842.02966	13431
842.05939	13411
842.08911	13517
842.11884	13501
842.14856	13456
842.17828	13615
842.20801	13410
842.23767	13406
842.2674	13538
842.29712	13392
842.32684	13573
842.35651	13589
842.38623	13553
842.41595	13584
842.44562	13614
842.47534	13525
842.50507	13728
842.53473	13514
842.56445	13540
842.59412	13647
842.62384	13429
842.6535	13385
842.68323	13501
842.71289	13393
842.74261	13393
842.77228	13468
842.802	13499
842.83167	13614
842.86133	13601
842.89105	13746
842.92072	13677
842.95038	13513
842.9801	13656
843.00977	13574
843.03943	13670
843.06915	13639
843.09882	13533
843.12848	13568
843.15814	13393
843.18781	13588
843.21747	13535
843.24719	13490
843.27686	13674
843.30652	13520
843.33618	13708
843.36584	13712
843.39551	13624
843.42517	13479
843.45483	13597
843.4845	13512
843.51416	13474
843.54382	13534
843.57349	13608
843.60315	13682
843.63275	13724
843.66241	13604
843.69208	13775
843.72174	13640
843.7514	13605
843.78107	13628
843.81067	13496
843.84033	13563
843.87	13668
843.8996	13764
843.92926	13683
843.95892	13727
843.98853	13711
844.01819	13607
844.04785	13869
844.07745	13736
844.10712	13652
844.13672	13578
844.16638	13712
844.19598	13767
844.22565	13642
844.25525	13806
844.28491	13797
844.31451	13637
844.34418	13673
844.37378	13666
844.40338	13660
844.43304	13762
844.46265	13615
844.49225	13668
844.52191	13818
844.55151	13674
844.58112	13577
844.61072	13811
844.64038	13729
844.66998	13797
844.69958	13629
844.72919	13596
844.75879	13648
844.78839	13727
844.81799	13828
844.84766	13844
844.87726	13520
844.90686	13935
844.93646	13818
844.96606	13560
844.99567	13757
845.02527	13686
845.05487	13529
845.08441	13874
845.11401	13796
845.14362	13845
845.17322	13632
845.20282	13879
845.23242	13823
845.26202	13975
845.29156	13666
845.32117	13726
845.35077	13598
845.38031	13819
845.40991	13941
845.43951	13706
845.46912	13902
845.49866	13773
845.52826	13930
845.5578	13852
845.5874	13697
845.617	13801
845.64655	13655
845.67615	13968
845.70569	13780
845.73529	13720
845.76483	13907
845.79437	13774
845.82397	13807
845.85352	13613
845.88312	14008
845.91266	13648
845.9422	13682
845.9718	13806
846.00134	13782
846.03088	13887
846.06049	13936
846.09003	13993
846.11957	13857
846.14911	13853
846.17865	13888
846.20825	13903
846.23779	13979
846.26733	14067
846.29688	13878
846.32642	13717
846.35596	13893
846.3855	13920
846.41504	13910
846.44458	13927
846.47412	13867
846.50366	14058
846.5332	13788
846.56274	13943
846.59229	13959
846.62183	14006
846.65137	14000
846.68091	13909
846.71039	14016
846.73993	13940
846.76947	13939
846.79901	13638
846.82849	13895
846.85803	13882
846.88757	13816
846.91711	14029
846.94659	13946
846.97614	14151
847.00568	13963
847.03516	13990
847.0647	13925
847.09418	14079
847.12372	14000
847.1532	13854
847.18274	13841
847.21222	14051
847.24176	13847
847.27124	14049
847.30078	14122
847.33026	14080
847.35974	14038
847.38928	13948
847.41876	14065
847.4483	14062
847.47778	13809
847.50726	13833
847.53674	13917
847.56628	13953
847.59576	13854
847.62524	14029
847.65472	13984
847.6842	13957
847.71375	14063
847.74323	13945
847.77271	14014
847.80219	13886
847.83167	13935
847.86115	13992
847.89063	13940
847.9201	13951
847.94958	13928
847.97906	13885
848.00854	14147
848.03802	13987
848.0675	14211
848.09698	13922
848.12646	13964
848.15588	13971
848.18536	13878
848.21484	13980
848.24432	13936
848.2738	14091
848.30322	13976
848.3327	13862
848.36218	13912
848.3916	13782
848.42108	13981
848.45056	14189
848.47998	13915
848.50946	13918
848.53894	14021
848.56836	13972
848.59784	14022
848.62726	14127
848.65674	14027
848.68616	13955
848.71564	14013
848.74506	14128
848.77454	13965
848.80396	13864
848.83337	13957
848.86285	13951
848.89227	14050
848.92169	14012
848.95117	13965
848.98059	14117
849.01001	14192
849.03943	14015
849.06891	14093
849.09833	14111
849.12775	14035
849.15717	14225
849.18658	14021
849.216	14100
849.24548	14202
849.2749	14223
849.30432	13933
849.33374	13988
849.36316	14182
849.39258	14046
849.422	14139
849.45142	14235
849.48083	14057
849.51025	14055
849.53961	14165
849.56903	13977
849.59845	14200
849.62787	14244
849.65729	14211
849.68671	14098
849.71606	14093
849.74548	13931
849.7749	14055
849.80432	14080
849.83368	14265
849.8631	14187
849.89252	14172
849.92188	13973
849.95129	14148
849.98071	14054
850.01007	14063
850.03949	14100
850.06885	14089
850.09827	14261
850.12762	13969
850.15704	14217
850.1864	14208
850.21582	14071
850.24518	14261
850.27454	14043
850.30396	14229
850.33331	14137
850.36267	14232
850.39209	14163
850.42145	14219
850.45081	14223
850.48016	14177
850.50958	14083
850.53894	14435
850.5683	14204
850.59766	14447
850.62701	14268
850.65643	14231
850.68579	14257
850.71515	14181
850.74451	14015
850.77386	14143
850.80322	14274
850.83258	14185
850.86194	14198
850.8913	14174
850.92065	14099
850.95001	14167
850.97937	14407
851.00867	14251
851.03802	14247
851.06738	14282
851.09674	14051
851.1261	14328
851.15546	14131
851.18475	14186
851.21411	14342
851.24347	14105
851.27277	14304
851.30212	14184
851.33148	14324
851.36078	14294
851.39014	14162
851.41949	14182
851.44879	14252
851.47815	14216
851.50745	14365
851.5368	14269
851.5661	14350
851.59546	14309
851.62476	14309
851.65411	14174
851.68341	14404
851.71271	14383
851.74207	14392
851.77136	14323
851.80066	14256
851.83002	14330
851.85931	14275
851.88861	14247
851.91797	14393
851.94727	14336
851.97656	14277
852.00586	14233
852.03516	14126
852.06445	14429
852.09381	14337
852.12311	14266
852.1524	14115
852.1817	14158
852.211	14329
852.2403	14293
852.26959	14266
852.29889	14391
852.32819	14382
852.35748	14411
852.38678	14233
852.41608	14370
852.44531	14239
852.47461	14482
852.50391	14321
852.5332	14486
852.5625	14315
852.59174	14349
852.62103	14322
852.65033	14372
852.67963	14325
852.70886	14333
852.73816	14287
852.76746	14189
852.79669	14500
852.82599	14364
852.85522	14330
852.88452	14481
852.91382	14350
852.94305	14152
852.97235	14362
853.00159	14461
853.03088	14339
853.06012	14280
853.08936	14388
853.11865	14354
853.14789	14429
853.17719	14215
853.20642	14294
853.23566	14321
853.26489	14383
853.29419	14268
853.32343	14272
853.35266	14368
853.3819	14415
853.41119	14473
853.44043	14436
853.46967	14399
853.4989	14523
853.52814	14261
853.55737	14319
853.58661	14469
853.61584	14335
853.64508	14433
853.67432	14597
853.70355	14384
853.73279	14355
853.76202	14403
853.79126	14374
853.8205	14400
853.84973	14604
853.87897	14396
853.9082	14180
853.93738	14446
853.96661	14239
853.99585	14489
854.02509	14353
854.05432	14303
854.0835	14539
854.11273	14419
854.14197	14236
854.17114	14344
854.20038	14247
854.22955	14399
854.25879	14140
854.28802	14343
854.3172	14422
854.34644	14484
854.37561	14280
854.40485	14561
854.43402	14546
854.46326	14452
854.49243	14322
854.52161	14682
854.55084	14529
854.58002	14039
854.60919	14309
854.63843	14457
854.6676	14382
854.69678	14178
854.72601	14325
854.75519	14167
854.78436	14413
854.81354	14446
854.84271	14466
854.87189	14418
854.90112	14489
854.9303	14454
854.95947	14342
854.98865	14434
855.01782	14396
855.047	14205
855.07617	14455
855.10535	14461
855.13452	14469
855.1637	14514
855.19287	14364
855.22205	14537
855.25116	14487
855.28033	14370
855.30951	14548
855.33868	14490
855.36786	14454
855.39703	14459
855.42615	14519
855.45532	14556
855.4845	14550
855.51361	14499
855.54279	14648
855.57196	14693
855.60107	14560
855.63025	14385
855.65936	14437
855.68854	14300
855.71771	14529
855.74683	14455
855.776	14797
855.80511	14714
855.83423	14551
855.8634	14455
855.89252	14634
855.92169	14520
855.95081	14414
855.97992	14565
856.00909	14634
856.03821	14751
856.06732	14828
856.0965	14668
856.12561	14589
856.15472	14823
856.18384	14678
856.21295	14778
856.24213	14779
856.27124	14730
856.30035	14765
856.32947	14642
856.35858	14585
856.3877	14841
856.41681	14737
856.44592	14759
856.47504	14736
856.50415	14575
856.53326	14689
856.56238	14602
856.59149	14579
856.62061	14766
856.64972	14567
856.67877	14708
856.70789	14711
856.737	14795
856.76611	14732
856.79517	14898
856.82428	14779
856.85339	14827
856.88251	14806
856.91156	14823
856.94067	14745
856.96979	14743
856.99884	14787
857.02795	14987
857.05701	14764
857.08612	14799
857.11517	14694
857.14429	14740
857.17334	14925
857.20245	14528
857.23151	14841
857.26062	14765
857.28967	14953
857.31873	14985
857.34784	14904
857.37689	14600
857.40594	14729
857.43506	14756
857.46411	15087
857.49316	14830
857.52222	14919
857.55133	14968
857.58038	14781
857.60944	14959
857.63849	15067
857.66754	14822
857.69659	14925
857.72565	14906
857.7547	14874
857.78375	14894
857.81281	14960
857.84186	15044
857.87091	14922
857.89996	15013
857.92902	15041
857.95807	15138
857.98712	15010
858.01617	14891
858.04523	14997
858.07428	14839
858.10327	14986
858.13232	14921
858.16138	15143
858.19043	15192
858.21942	15046
858.24847	15086
858.27753	14952
858.30652	15031
858.33557	15240
858.36456	15174
858.39362	15046
858.42267	15243
858.45166	15120
858.48071	15112
858.5097	14971
858.53876	14956
858.56775	15171
858.59674	15108
858.62579	15169
858.65479	15258
858.68384	15341
858.71283	15155
858.74182	15187
858.77087	15159
858.79987	15366
858.82886	15316
858.85785	15217
858.8869	15172
858.91589	15332
858.94489	15367
858.97388	15317
859.00287	15365
859.03186	15300
859.06085	15424
859.08984	15403
859.1189	15328
859.14789	15372
859.17688	15384
859.20587	15380
859.2348	15447
859.26379	15565
859.29279	15313
859.32178	15339
859.35077	15479
859.37976	15401
859.40875	15531
859.43774	15329
859.46667	15472
859.49567	15355
859.52466	15373
859.55365	15391
859.58258	15555
859.61157	15547
859.64056	15561
859.66949	15595
859.69849	15411
859.72742	15446
859.75641	15621
859.7854	15731
859.81433	15588
859.84332	15376
859.87225	15580
859.90118	15359
859.93018	15415
859.95911	15297
859.9881	15728
860.01703	15621
860.04596	15686
860.07495	15638
860.10388	15605
860.13281	15634
860.1618	15781
860.19073	15606
860.21967	15939
860.2486	15496
860.27753	15743
860.30652	15621
860.33545	15650
860.36438	15696
860.39331	15682
860.42224	15635
860.45117	15788
860.4801	15925
860.50903	15836
860.53796	15817
860.56689	15755
860.59583	15870
860.62476	15715
860.65369	15993
860.68262	15957
860.71149	15831
860.74042	15855
860.76935	15819
860.79828	15886
860.82721	15781
860.85608	16003
860.88501	15654
860.91394	15798
860.94287	15891
860.97174	16042
861.00067	15816
861.02954	16080
861.05847	16147
861.0874	15926
861.11627	16028
861.1452	16124
861.17407	15909
861.203	15967
861.23187	15934
861.2608	15876
861.28967	16126
861.31854	16074
861.34747	16122
861.37634	16016
861.40521	16145
861.43414	15752
861.46301	16034
861.49188	16085
861.52075	16100
861.54968	16158
861.57855	16325
861.60742	16145
861.63629	16385
861.66516	16329
861.69403	16242
861.72296	16285
861.75183	16290
861.7807	16300
861.80957	16472
861.83844	16371
861.86731	16188
861.89618	16264
861.92505	16305
861.95386	16161
861.98273	16225
862.0116	16414
862.04047	16400
862.06934	16406
862.09821	16492
862.12701	16371
862.15588	16729
862.18475	16339
862.21362	16498
862.24243	16582
862.2713	16673
862.30017	16703
862.32898	16766
862.35785	16717
862.38666	16421
862.41553	16687
862.4444	16754
862.47321	16658
862.50208	16616
862.53088	16366
862.55969	16697
862.58856	16653
862.61737	16839
862.64624	16768
862.67505	16800
862.70386	16954
862.73273	16952
862.76154	16875
862.79034	16811
862.81921	16945
862.84802	16595
862.87683	16609
862.90564	16826
862.93445	16989
862.96326	16720
862.99213	16861
863.02094	16781
863.04974	17082
863.07855	16949
863.10736	17043
863.13617	17051
863.16498	16879
863.19379	16935
863.2226	17101
863.2514	17107
863.28021	17328
863.30896	17041
863.33777	16892
863.36658	17059
863.39539	17188
863.42419	17158
863.453	17288
863.48175	17071
863.51056	17178
863.53937	17255
863.56812	17199
863.59692	17412
863.62573	17312
863.65448	17591
863.68329	17335
863.71204	17455
863.74084	17392
863.76959	17268
863.7984	17740
863.82715	17491
863.85596	17579
863.8847	17770
863.91351	17532
863.94226	18031
863.97107	17744
863.99982	17709
864.02856	18018
864.05731	17720
864.08612	18000
864.11487	17971
864.14362	17872
864.17236	17794
864.20117	17898
864.22992	18009
864.25867	18257
864.28741	17995
864.31616	18131
864.34491	17893
864.37366	18211
864.4024	18090
864.43115	18332
864.4599	18050
864.48865	18347
864.5174	18442
864.54614	18595
864.57489	18519
864.60364	18630
864.63239	18613
864.66113	18551
864.68982	18811
864.71857	18756
864.74731	18676
864.77606	18685
864.80481	19030
864.8335	18981
864.86224	18927
864.89099	18693
864.91968	18607
864.94843	18954
864.97711	18865
865.00586	18858
865.03455	18730
865.06329	19115
865.09198	18952
865.12073	19147
865.14941	19296
865.17816	19040
865.20685	18871
865.2356	18987
865.26428	19204
865.29297	19046
865.32172	19443
865.3504	19253
865.37909	19070
